WAVELENGTH	NORM_INTENSITY
199.97546	0
200.17692	0
200.37839	0
200.57989	0
200.7814	0
200.98293	0
201.18448	0
201.38605	0
201.58764	0
201.78925	0
201.99087	0
202.19252	0
202.39418	0
202.59586	0
202.79756	0
202.99928	0
203.20102	0
203.40278	0
203.60455	0
203.80635	0
204.00816	0
204.20999	0
204.41184	0
204.61371	0
204.8156	0
205.0175	0
205.21943	0
205.42137	0
205.62334	0
205.82532	0
206.02732	0
206.22934	0
206.43137	0
206.63343	0
206.83551	0
207.0376	0
207.23971	0
207.44184	0
207.64399	0
207.84616	0
208.04835	0
208.25055	0
208.45278	0
208.65502	0
208.85728	0
209.05956	0
209.26186	0
209.46418	0
209.66651	0
209.86887	0
210.07124	0
210.27363	0
210.47604	0
210.67847	0
210.88092	0
211.08338	0
211.28587	0
211.48837	0
211.69089	0
211.89343	0
212.09599	0
212.29857	0
212.50117	0
212.70378	0
212.90641	0
213.10907	0
213.31174	0
213.51442	0
213.71713	0
213.91986	0
214.1226	0
214.32537	0
214.52815	0
214.73095	0
214.93376	0
215.1366	0
215.33946	0
215.54233	0
215.74522	0
215.94813	0
216.15106	0
216.35401	0
216.55698	0
216.75996	0
216.96297	0
217.16599	0
217.36903	0
217.57209	0
217.77517	0
217.97826	0
218.18138	0
218.38451	0
218.58766	0
218.79083	0
218.99402	0
219.19722	0
219.40045	0
219.60369	0
219.80695	0
220.01023	0
220.21353	0
220.41685	0
220.62018	0
220.82354	0
221.02691	0
221.2303	0
221.43371	0
221.63713	0
221.84058	0
222.04404	0
222.24753	0
222.45103	0
222.65455	0
222.85808	0
223.06164	0
223.26521	0
223.46881	0
223.67242	0
223.87605	0
224.07969	0
224.28336	0
224.48704	0
224.69075	0
224.89447	0
225.0982	0
225.30196	0
225.50574	0
225.70953	0
225.91334	0
226.11717	0
226.32102	0
226.52489	0
226.72878	0
226.93268	0
227.1366	0
227.34054	0
227.5445	0
227.74848	0
227.95247	0
228.15649	0
228.36052	0
228.56457	0
228.76863	0
228.97272	0
229.17683	0
229.38095	0
229.58509	0
229.78925	0
229.99343	0
230.19762	0
230.40183	0
230.60607	0
230.81032	0
231.01459	0
231.21887	0
231.42318	0
231.6275	0
231.83184	0
232.0362	0
232.24058	0
232.44497	0
232.64939	0
232.85382	0
233.05827	0
233.26274	0
233.46722	0
233.67173	0
233.87625	0
234.08079	0
234.28535	0
234.48993	0
234.69452	0
234.89914	0
235.10377	0
235.30842	0
235.51309	0
235.71777	0
235.92248	0
236.1272	0
236.33194	0
236.5367	0
236.74147	0
236.94627	0
237.15108	0
237.35591	0
237.56076	0
237.76563	0
237.97051	0
238.17541	0
238.38033	0
238.58527	0
238.79023	0
238.9952	0
239.2002	0
239.40521	0
239.61024	0
239.81529	0
240.02035	0
240.22543	0
240.43053	0
240.63565	0
240.84079	0
241.04595	0
241.25112	0
241.45631	0
241.66152	0
241.86675	0
242.07199	0
242.27726	0
242.48254	0
242.68784	0
242.89315	0
243.09849	0
243.30384	0
243.50921	0
243.7146	0
243.92001	0
244.12543	0
244.33087	0
244.53633	0
244.74181	0
244.94731	0
245.15282	0
245.35836	0
245.56391	0
245.76948	0
245.97506	0
246.18067	0
246.38629	0
246.59193	0
246.79758	0
247.00326	0
247.20895	0
247.41466	0
247.62039	0
247.82614	0
248.03191	0
248.23769	0
248.44349	0
248.64931	0
248.85514	0
249.061	0
249.26687	0
249.47276	0
249.67867	0
249.88459	0
250.09054	0
250.2965	0
250.50248	0
250.70847	0
250.91449	0
251.12052	0
251.32657	0
251.53264	0
251.73872	0
251.94483	0
252.15095	0
252.35709	0
252.56325	0
252.76942	0
252.97561	0
253.18182	0
253.38805	0
253.5943	0
253.80056	0
254.00684	0
254.21314	0
254.41946	0
254.62579	0
254.83214	0
255.03851	0
255.2449	0
255.45131	0
255.65773	0
255.86417	0
256.07063	0
256.27711	0
256.4836	0
256.69011	0
256.89664	0
257.10319	0
257.30975	0
257.51634	0
257.72294	0
257.92955	0
258.13619	0
258.34284	0
258.54951	0
258.7562	0
258.96291	0
259.16963	0
259.37637	0
259.58313	0
259.78991	0
259.9967	0
260.20351	0
260.41034	0
260.61719	0
260.82406	0
261.03094	0
261.23784	0
261.44476	0
261.65169	0
261.85864	0
262.06561	0
262.2726	0
262.47961	0
262.68663	0
262.89367	0
263.10073	0
263.30781	0
263.5149	0
263.72201	0
263.92914	0
264.13629	0
264.34345	0
264.55063	0
264.75783	0
264.96505	0
265.17228	0
265.37953	0
265.5868	0
265.79409	0
266.00139	0
266.20871	0
266.41605	0
266.62341	0
266.83078	0
267.03817	0
267.24558	0
267.45301	0
267.66045	0
267.86791	0
268.07539	0
268.28289	0
268.4904	0
268.69793	0
268.90548	0
269.11305	0
269.32063	0
269.52823	0
269.73585	0
269.94349	0
270.15114	0
270.35881	0
270.5665	0
270.77421	0
270.98193	0
271.18967	0
271.39743	0
271.60521	0
271.813	0
272.02081	0
272.22864	0
272.43648	0
272.64434	0
272.85222	0
273.06012	0
273.26804	0
273.47597	0
273.68392	0
273.89188	0
274.09987	0
274.30787	0
274.51589	0
274.72392	0
274.93198	0
275.14005	0
275.34814	0
275.55624	0
275.76437	0
275.97251	0
276.18066	0
276.38884	0
276.59703	0
276.80524	0
277.01347	0
277.22171	0
277.42997	0
277.63825	0
277.84655	0
278.05486	0
278.26319	0
278.47154	0
278.6799	0
278.88829	0
279.09669	0
279.3051	0
279.51354	0
279.72199	0
279.93046	0
280.13894	0
280.34745	0
280.55597	0
280.7645	0
280.97306	0
281.18163	0
281.39022	0
281.59883	0
281.80745	0
282.01609	0
282.22475	0
282.43342	0
282.64212	0
282.85083	0
283.05955	0
283.2683	0
283.47706	0
283.68584	0
283.89463	0
284.10345	0
284.31228	0
284.52112	0
284.72999	0
284.93887	0
285.14777	0
285.35668	0
285.56562	0
285.77457	0
285.98353	0
286.19252	0
286.40152	0
286.61054	0
286.81957	0
287.02863	0
287.2377	0
287.44678	0
287.65589	0
287.86501	0
288.07415	0
288.2833	0
288.49248	0
288.70167	0
288.91087	0
289.1201	0
289.32934	0
289.53859	0
289.74787	0
289.95716	0
290.16647	0
290.3758	0
290.58514	0
290.7945	0
291.00388	0
291.21327	0
291.42268	0
291.63211	0
291.84156	0
292.05102	0
292.2605	0
292.47	0
292.67951	0
292.88904	0
293.09859	0
293.30815	0
293.51773	0
293.72733	0
293.93695	0
294.14658	0
294.35623	0
294.56589	0
294.77558	0
294.98528	0
295.195	0
295.40473	0
295.61448	0
295.82425	0
296.03403	0
296.24384	0
296.45366	0
296.66349	0
296.87334	0
297.08321	0
297.2931	0
297.503	0
297.71292	0
297.92286	0
298.13282	0
298.34279	0
298.55277	0
298.76278	0
298.9728	0
299.18284	0
299.3929	0
299.60297	0
299.81306	0
300.02316	0
300.23329	0
300.44343	0
300.65358	0
300.86376	0
301.07395	0
301.28416	0
301.49438	0
301.70462	0
301.91488	0
302.12515	0
302.33544	0
302.54575	0
302.75608	0
302.96642	0
303.17678	0
303.38715	0
303.59755	0
303.80796	0
304.01838	0
304.22882	0
304.43928	0
304.64976	0
304.86025	0
305.07076	0
305.28129	0
305.49183	0
305.70239	0
305.91297	0
306.12356	0
306.33417	0
306.5448	0
306.75545	0
306.96611	0
307.17678	0
307.38748	0
307.59819	0
307.80892	0
308.01966	0
308.23042	0
308.4412	0
308.65199	0
308.8628	0
309.07363	0
309.28448	0
309.49534	0
309.70622	0
309.91711	0
310.12802	0
310.33895	0
310.54989	0
310.76085	0
310.97183	0
311.18283	0
311.39384	0
311.60487	0
311.81591	0
312.02697	0
312.23805	0
312.44914	0
312.66025	0
312.87138	0
313.08253	0
313.29369	0
313.50486	0
313.71606	0
313.92727	0
314.1385	0
314.34974	0
314.561	0
314.77228	0
314.98357	0
315.19488	0
315.40621	0
315.61755	0
315.82891	0
316.04029	0
316.25168	0
316.46309	0
316.67452	0
316.88596	0
317.09742	0
317.3089	0
317.52039	0
317.7319	0
317.94342	0
318.15496	0
318.36652	0
318.5781	0
318.78969	0
319.0013	0
319.21292	0
319.42456	0
319.63622	0
319.84789	0
320.05958	0
320.27129	0
320.48302	0
320.69476	0
320.90651	0
321.11828	0
321.33007	0
321.54188	0
321.7537	0
321.96554	0
322.1774	0
322.38927	0
322.60116	0
322.81306	0
323.02498	0
323.23692	0
323.44887	0
323.66084	0
323.87283	0
324.08483	0
324.29685	0
324.50889	0
324.72094	0
324.93301	0
325.14509	0
325.35719	0
325.56931	0
325.78145	0
325.9936	0
326.20576	0
326.41795	0
326.63015	0
326.84236	0
327.0546	0
327.26684	0
327.47911	0
327.69139	0
327.90369	0
328.116	0
328.32833	0
328.54068	0
328.75304	0
328.96542	0
329.17782	0
329.39023	0
329.60266	0
329.8151	0
330.02756	0
330.24004	0
330.45253	0
330.66504	0
330.87757	0
331.09011	0
331.30267	0
331.51525	0
331.72784	0
331.94045	0
332.15307	0
332.36571	0
332.57837	0
332.79104	0
333.00373	0
333.21643	0
333.42915	0
333.64189	0
333.85464	0
334.06741	0
334.2802	0
334.493	0
334.70582	0
334.91866	0
335.13151	0
335.34437	0
335.55726	0
335.77016	0
335.98307	0
336.196	0
336.40895	0
336.62192	0
336.8349	0
337.04789	0
337.26091	0
337.47394	0
337.68698	0
337.90004	0
338.11312	0
338.32621	0
338.53932	0
338.75245	0
338.96559	0
339.17875	0
339.39192	0
339.60511	0
339.81832	0
340.03154	0
340.24478	0
340.45804	0
340.67131	0
340.88459	0
341.0979	0
341.31122	0
341.52455	0
341.7379	0
341.95127	0
342.16465	0
342.37805	0
342.59147	0
342.8049	0
343.01835	0
343.23181	0
343.44529	0
343.65879	0
343.8723	0
344.08583	0
344.29937	0
344.51293	0
344.72651	0
344.9401	0
345.15371	0
345.36733	0
345.58097	0
345.79463	0
346.0083	0
346.22199	0
346.43569	0
346.64941	0
346.86315	0
347.0769	0
347.29067	0
347.50446	0
347.71826	0
347.93207	0
348.1459	0
348.35975	0
348.57362	0
348.78749	0
349.00139	0
349.2153	0
349.42923	0
349.64317	0
349.85713	0
350.07111	0
350.2851	0
350.49911	0
350.71313	0
350.92717	0
351.14122	0
351.3553	0
351.56938	0
351.78349	0
351.9976	0
352.21174	0
352.42589	0
352.64005	0
352.85424	0
353.06844	0
353.28265	0
353.49688	0
353.71112	0
353.92539	0
354.13966	0
354.35396	0
354.56827	0
354.78259	0
354.99693	0
355.21129	0
355.42566	0
355.64005	0
355.85445	0
356.06887	0
356.28331	0
356.49776	0
356.71223	0
356.92671	0
357.14121	0
357.35572	0
357.57025	0
357.7848	0
357.99936	0
358.21394	0
358.42853	0
358.64314	0
358.85777	0
359.07241	0
359.28706	0
359.50173	0
359.71642	0
359.93113	0
360.14585	0
360.36058	0
360.57533	0
360.7901	0
361.00488	0
361.21968	0
361.43449	0
361.64932	0
361.86417	0
362.07903	0
362.29391	0
362.5088	0
362.72371	0
362.93863	0
363.15357	0
363.36852	0
363.58349	0
363.79848	0
364.01348	0
364.2285	0
364.44353	0
364.65858	0
364.87365	0
365.08873	0
365.30382	0
365.51894	0
365.73406	0
365.94921	0
366.16436	0
366.37954	0
366.59473	0
366.80993	0
367.02515	0
367.24039	0
367.45564	0
367.67091	0
367.88619	0
368.10149	0
368.31681	0
368.53214	0
368.74748	0
368.96285	0
369.17822	0
369.39361	0
369.60902	0
369.82445	0
370.03989	0
370.25534	0
370.47081	0
370.6863	0
370.9018	0
371.11731	0
371.33285	0
371.54839	0
371.76396	0
371.97954	0
372.19513	0
372.41074	0
372.62637	0
372.84201	0
373.05766	0
373.27334	0
373.48902	0
373.70473	0
373.92044	0
374.13618	0
374.35193	0
374.56769	0
374.78347	0
374.99927	0
375.21508	0
375.43091	0
375.64675	0
375.86261	0
376.07848	0
376.29437	0
376.51027	0
376.72619	0
376.94213	0
377.15808	0
377.37404	0
377.59002	0
377.80602	0
378.02203	0
378.23806	0
378.4541	0
378.67016	0
378.88623	0
379.10232	0
379.31842	0
379.53454	0
379.75068	0
379.96683	0
380.183	0
380.39918	0
380.61537	0
380.83158	0
381.04781	0
381.26405	0
381.48031	0
381.69659	-0.00766
381.91287	2.61E-03
382.12918	-0.0116
382.3455	0.00357
382.56183	-5.98E-03
382.77818	-9.59E-04
382.99455	3.27E-03
383.21093	-0.0011
383.42732	-0.00195
383.64373	0.0021
383.86016	-0.00337
384.0766	0.00272
384.29306	-5.36E-03
384.50953	-3.43E-04
384.72602	-1.72E-03
384.94252	0.00825
385.15904	-0.01183
385.37557	2.89E-05
385.59212	-4.03E-03
385.80868	-0.00116
386.02526	-0.00372
386.24186	0.00383
386.45847	-0.00219
386.67509	-0.00169
386.89173	-9.14E-04
387.10839	0.00265
387.32506	-0.00146
387.54174	5.41E-04
387.75844	0.00145
387.97516	0.00489
388.19189	-0.00118
388.40864	1.96E-04
388.6254	-4.46E-03
388.84218	-0.00239
389.05897	-0.00613
389.27578	0.00396
389.4926	-0.00493
389.70944	-4.57E-04
389.92629	-0.0059
390.14316	8.91E-04
390.36004	-0.00153
390.57694	0.00215
390.79385	-0.00496
391.01078	8.20E-04
391.22773	-1.42E-03
391.44469	4.82E-04
391.66166	-0.00504
391.87865	0.00148
392.09566	-5.32E-03
392.31268	-0.00451
392.52971	-0.00349
392.74676	0.0031
392.96383	-0.00579
393.18091	0.00282
393.398	-3.45E-03
393.61511	0.00426
393.83224	-2.23E-04
394.04938	0.00127
394.26653	-0.00358
394.48371	0.00156
394.70089	-0.00294
394.91809	0.00285
395.13531	-4.20E-04
395.35254	0.00261
395.56979	-0.0026
395.78705	9.57E-04
396.00433	-0.00634
396.22162	0.00292
396.43892	-0.0048
396.65625	0.00256
396.87358	-3.20E-03
397.09094	0.00115
397.3083	-0.00316
397.52568	0.00516
397.74308	-3.61E-03
397.96049	0.0015
398.17792	-0.00175
398.39536	0.00158
398.61282	-4.76E-03
398.83029	-6.20E-05
399.04778	-2.73E-03
399.26528	-0.00219
399.4828	-0.00529
399.70033	8.27E-04
399.91788	-2.61E-03
400.13544	0.00315
400.35302	0.00143
400.57061	0.00518
400.78822	-0.00497
401.00584	-2.89E-04
401.22348	-0.00151
401.44113	-4.21E-04
401.6588	-0.00111
401.87648	-6.20E-04
402.09418	-0.00232
402.31189	-0.00156
402.52962	-0.00434
402.74736	0.00265
402.96512	5.08E-04
403.18289	0.00225
403.40067	-0.00295
403.61848	0.00173
403.83629	-0.00385
404.05412	3.71E-04
404.27197	-0.00255
404.48983	-0.00118
404.70771	7.79E-04
404.9256	0.00113
405.14351	-0.00171
405.36143	0.00224
405.57936	-0.00144
405.79731	0.0015
406.01528	-0.00468
406.23326	-0.00238
406.45126	-0.00162
406.66927	0.00149
406.88729	6.82E-04
407.10533	7.16E-04
407.32339	-0.00402
407.54146	2.80E-04
407.75954	-9.36E-04
407.97764	4.66E-04
408.19576	-5.55E-04
408.41389	0.00163
408.63203	0.00131
408.85019	-0.00299
409.06836	0.0011
409.28655	-0.00212
409.50476	0.00262
409.72297	-0.00224
409.94121	0.0015
410.15946	-0.00229
410.37772	0.00285
410.596	-0.00197
410.81429	0.00131
411.0326	-0.00106
411.25092	0.00175
411.46925	-7.65E-04
411.68761	-0.00213
411.90597	-0.00139
412.12435	1.82E-04
412.34275	-0.0022
412.56116	0.00161
412.77959	-0.00121
412.99803	-0.00161
413.21648	-5.48E-04
413.43495	0.00191
413.65344	-0.00117
413.87193	0.0022
414.09045	0.00113
414.30898	0.00122
414.52752	0.00117
414.74608	-1.93E-04
414.96465	-7.78E-04
415.18324	0.00224
415.40184	-6.02E-04
415.62046	6.94E-04
415.83909	-0.00178
416.05774	0.00121
416.2764	-0.00101
416.49508	1.22E-04
416.71377	-0.00276
416.93247	-3.19E-04
417.15119	-0.00378
417.36993	0.0016
417.58868	0.00174
417.80744	0.00583
418.02622	-0.00396
418.24501	-1.58E-04
418.46382	-0.00138
418.68264	0.00198
418.90148	-0.00186
419.12033	0.00106
419.3392	-0.00425
419.55808	5.88E-04
419.77698	-5.45E-05
419.99589	0.00309
420.21481	5.62E-04
420.43375	-0.00174
420.65271	-5.36E-05
420.87167	0.00385
421.09066	-0.00127
421.30966	0.00398
421.52867	-0.00202
421.7477	0.00169
421.96674	3.93E-04
422.1858	0.00386
422.40487	6.89E-04
422.62395	0.0017
422.84305	-0.00133
423.06217	-5.39E-05
423.2813	1.64E-04
423.50044	0.00435
423.7196	-9.05E-04
423.93878	0.00408
424.15796	-1.62E-04
424.37717	6.87E-04
424.59638	0.002
424.81561	3.92E-05
425.03486	0.00114
425.25412	0.00181
425.4734	-0.00279
425.69269	-0.00104
425.91199	-0.00212
426.13131	0.00345
426.35064	6.31E-04
426.56999	0.00169
426.78935	0.00143
427.00873	0.00167
427.22812	0.00341
427.44753	0.0036
427.66695	5.52E-04
427.88638	0.00332
428.10583	0.0011
428.3253	0.00304
428.54477	0.0024
428.76427	0.00487
428.98377	0.00335
429.2033	0.00414
429.42283	0.00117
429.64238	0.00371
429.86195	0.00208
430.08153	0.00201
430.30112	0.00184
430.52073	0.00513
430.74035	0.00146
430.95999	0.00674
431.17964	0.00196
431.39931	0.0071
431.61899	0.00417
431.83868	0.00977
432.05839	0.00491
432.27812	0.00425
432.49785	0.00296
432.71761	0.00701
432.93737	0.00531
433.15716	0.00538
433.37695	0.00613
433.59676	0.00719
433.81659	0.00679
434.03643	0.00845
434.25628	0.00439
434.47615	0.00856
434.69603	0.00692
434.91593	0.00966
435.13584	0.0052
435.35576	0.00819
435.5757	0.00604
435.79565	0.00972
436.01562	0.00764
436.23561	0.00921
436.4556	0.00649
436.67561	0.00769
436.89564	0.00685
437.11568	0.01001
437.33573	0.00762
437.5558	0.00946
437.77589	0.00548
437.99598	0.01001
438.21609	0.00651
438.43622	0.00767
438.65636	0.00714
438.87651	0.01066
439.09668	0.00787
439.31687	0.00923
439.53706	0.00721
439.75727	0.00691
439.9775	0.00649
440.19774	0.0099
440.41799	0.00615
440.63826	0.00862
440.85855	0.00638
441.07884	0.00876
441.29915	0.00502
441.51948	0.00703
441.73982	0.00549
441.96017	0.01044
442.18054	0.004
442.40092	0.00672
442.62132	0.00571
442.84173	0.00745
443.06216	0.00595
443.2826	0.00531
443.50305	0.00421
443.72352	0.00552
443.944	0.0049
444.1645	0.00689
444.38501	0.00627
444.60553	0.00445
444.82607	0.0061
445.04662	0.00708
445.26719	9.43E-04
445.48777	0.00594
445.70837	0.004
445.92898	0.00543
446.1496	0.00487
446.37024	0.00816
446.59089	0.00384
446.81156	0.00684
447.03224	0.00493
447.25293	0.00463
447.47364	0.00328
447.69436	0.00598
447.9151	0.00456
448.13585	0.00643
448.35662	0.00515
448.5774	0.00776
448.79819	0.00455
449.019	0.00672
449.23982	0.00221
449.46065	0.00565
449.6815	0.00302
449.90237	0.0027
450.12325	0.00474
450.34414	0.00511
450.56504	0.003
450.78597	-1.54E-04
451.0069	-3.89E-04
451.22785	0.00558
451.44881	0.00405
451.66979	0.00677
451.89078	0.00322
452.11178	0.00644
452.3328	0.00178
452.55383	0.00517
452.77488	0.00485
452.99594	0.00384
453.21702	9.91E-04
453.43811	0.006
453.65921	0.00219
453.88032	0.00616
454.10146	4.04E-03
454.3226	0.00819
454.54376	0.00398
454.76493	0.00503
454.98612	0.00188
455.20732	0.00468
455.42854	9.11E-04
455.64976	0.0048
455.87101	0.00369
456.09226	0.00633
456.31354	2.65E-03
456.53482	0.00408
456.75612	2.81E-03
456.97743	0.0051
457.19876	0.00292
457.4201	0.00282
457.64145	0.00262
457.86282	0.00208
458.08421	0.00265
458.3056	0.00274
458.52701	0.00369
458.74844	0.00444
458.96988	0.00374
459.19133	0.00412
459.41279	0.0033
459.63427	0.00417
459.85577	0.00277
460.07728	0.00214
460.2988	0.00224
460.52033	0.00291
460.74188	0.003
460.96345	0.00363
461.18502	-0.00102
461.40662	0.00289
461.62822	9.50E-04
461.84984	0.00318
462.07147	7.74E-04
462.29312	0.00536
462.51478	5.39E-04
462.73645	0.00378
462.95814	1.15E-03
463.17984	0.00375
463.40156	1.49E-03
463.62329	0.00432
463.84503	0.00238
464.06679	0.00418
464.28856	2.73E-03
464.51035	0.00368
464.73215	0.00318
464.95396	0.00276
465.17579	0.0048
465.39763	8.75E-04
465.61948	0.00309
465.84135	0.00109
466.06323	0.00386
466.28513	0.0021
466.50704	0.00242
466.72896	1.01E-03
466.9509	0.00376
467.17285	0.00249
467.39481	0.00278
467.61679	0.00118
467.83878	0.0042
468.06079	0.00135
468.28281	0.00258
468.50484	0.00123
468.72689	0.00301
468.94895	0.00226
469.17103	0.00318
469.39312	-2.40E-04
469.61522	0.00304
469.83733	-1.42E-04
470.05946	0.00316
470.28161	4.12E-04
470.50376	0.00323
470.72594	0.00209
470.94812	0.00309
471.17032	0.00132
471.39253	0.00225
471.61476	0.00112
471.837	0.00301
472.05925	0.00145
472.28152	0.00338
472.5038	0.0025
472.72609	0.00257
472.9484	0.00203
473.17072	0.00262
473.39305	6.38E-04
473.6154	0.00425
473.83777	-1.52E-04
474.06014	0.00232
474.28253	8.93E-04
474.50494	0.00273
474.72735	0.00159
474.94978	0.00321
475.17223	0.00162
475.39469	0.00347
475.61716	0.0016
475.83964	0.0036
476.06214	5.68E-04
476.28465	0.00165
476.50718	4.42E-04
476.72972	0.00297
476.95227	0.0019
477.17484	0.00193
477.39742	0.00114
477.62001	0.00212
477.84262	0.00197
478.06524	0.00304
478.28788	0.00112
478.51053	0.00378
478.73319	-4.45E-04
478.95586	0.00204
479.17855	3.41E-04
479.40126	0.00249
479.62397	-3.83E-06
479.8467	0.00464
480.06945	0.00111
480.2922	0.0036
480.51497	0.00166
480.73776	0.00147
480.96056	0.00114
481.18337	0.0027
481.40619	9.26E-04
